#Wave	#Intensity
1318.707031	303.393494
1317.582031	314.799255
1316.455078	273.689209
1315.328125	278.200592
1314.201172	323.748932
1313.072266	348.765259
1311.945313	287.166687
1310.816406	305.344482
1309.689453	380.472656
1308.560547	350.791779
1307.431641	316.566650
1306.304688	268.691589
1305.175781	257.259918
1304.046875	350.538788
1302.916016	320.889923
1301.787109	327.658234
1300.658203	323.049103
1299.527344	311.617859
1298.398438	281.997345
1297.267578	304.684052
1296.136719	270.528748
1295.005859	288.663391
1293.875000	340.879395
1292.744141	343.089905
1291.613281	277.148346
1290.480469	290.726013
1289.349609	302.027863
1288.216797	311.055145
1287.085938	333.699524
1285.953125	297.324677
1284.820313	279.116913
1283.687500	308.561218
1282.554688	299.431641
1281.421875	294.841400
1280.289063	294.788025
1279.154297	310.604919
1278.021484	276.546967
1276.886719	333.156067
1275.753906	310.436096
1274.619141	294.520996
1273.484375	314.853821
1272.349609	319.326172
1271.214844	346.440002
1270.078125	312.418610
1268.943359	258.038116
1267.808594	291.937500
1266.671875	325.824554
1265.535156	312.191864
1264.400391	282.731110
1263.263672	303.032715
1262.126953	273.584320
1260.990234	280.316467
1259.853516	305.127777
1258.714844	255.356842
1257.578125	305.016876
1256.441406	280.112701
1255.302734	311.681641
1254.164063	343.239075
1253.025391	313.825989
1251.886719	316.026245
1250.748047	315.968719
1249.609375	342.989319
1248.470703	275.243927
1247.332031	313.540497
1246.191406	295.441193
1245.052734	329.210358
1243.912109	293.079102
1242.771484	290.771667
1241.630859	290.718658
1240.490234	324.464020
1239.349609	313.140808
1238.208984	355.879303
1237.068359	288.254730
1235.925781	319.724243
1234.785156	294.903076
1233.642578	272.341675
1232.501953	303.796814
1231.359375	330.740601
1230.216797	296.937347
1229.074219	260.897278
1227.931641	260.849640
1226.787109	294.526398
1225.644531	323.695068
1224.500000	316.893494
1223.357422	283.129669
1222.212891	321.270966
1221.068359	269.548706
1219.925781	323.399323
1218.781250	354.776031
1217.634766	267.155853
1216.490234	280.574554
1215.345703	289.499939
1214.199219	323.103607
1213.054688	266.960358
1211.908203	316.256439
1210.761719	304.985840
1209.617188	280.266510
1208.470703	277.973450
1207.322266	302.576965
1206.175781	302.521515
1205.029297	264.377747
1203.882813	300.170532
1202.734375	286.677521
1201.585938	329.170837
1200.439453	291.050079
1199.291016	326.811676
1198.142578	277.515137
1196.994141	268.513763
1195.845703	293.073730
1194.695313	290.783142
1193.546875	304.148071
1192.398438	299.620270
1191.248047	317.449738
1190.097656	319.626587
1188.947266	306.159424
1187.798828	294.931519
1186.648438	321.684357
1185.496094	303.757172
1184.345703	326.032318
1183.195313	339.368500
1182.042969	310.286499
1180.892578	305.765686
1179.740234	323.561096
1178.587891	352.505157
1177.435547	352.440277
1176.283203	298.850037
1175.130859	343.391296
1173.978516	338.869263
1172.826172	287.540039
1171.671875	332.058746
1170.519531	318.628540
1169.365234	331.936401
1168.210938	347.466705
1167.056641	313.998566
1165.902344	325.073334
1164.748047	382.892517
1163.593750	316.050659
1162.439453	298.189972
1161.283203	313.709198
1160.128906	351.467438
1158.972656	338.058197
1157.818359	313.535583
1156.662109	362.389160
1155.505859	337.871063
1154.349609	291.137756
1153.191406	306.638092
1152.035156	308.803070
1150.878906	359.833496
1149.720703	315.351349
1148.564453	326.394958
1147.406250	350.754242
1146.248047	352.908966
1145.089844	348.405426
1143.931641	306.185089
1142.773438	299.473511
1141.615234	365.955475
1140.455078	312.667755
1139.296875	321.478271
1138.136719	354.669006
1136.976563	288.115234
1135.818359	343.458435
1134.658203	387.703857
1133.498047	327.825958
1132.335938	358.770081
1131.175781	394.131165
1130.015625	389.630524
1128.853516	409.478943
1127.693359	369.569244
1126.531250	345.162384
1125.369141	360.583588
1124.207031	380.422577
1123.044922	378.140686
1121.882813	360.383026
1120.720703	378.000427
1119.556641	382.350555
1118.394531	360.182526
1117.230469	360.115662
1116.068359	342.377716
1114.904297	373.232880
1113.740234	401.868469
1112.576172	375.301941
1111.412109	353.159760
1110.246094	361.921539
1109.082031	328.757874
1107.917969	337.520844
1106.751953	346.280579
1105.585938	317.548615
1104.421875	341.742279
1103.255859	326.248077
1102.089844	319.575500
1100.921875	348.162354
1099.755859	367.925934
1098.589844	328.208191
1097.421875	314.933136
1096.255859	334.691803
1095.087891	343.435547
1093.919922	301.550720
1092.751953	325.702179
1091.583984	327.841797
1090.416016	345.379730
1089.248047	332.118622
1088.080078	367.241577
1086.910156	310.008453
1085.740234	351.717102
1084.572266	336.266785
1083.402344	338.401520
1082.232422	428.415558
1081.062500	404.173157
1079.892578	408.490143
1078.722656	412.805481
1077.550781	423.705292
1076.380859	417.041382
1075.208984	458.659912
1074.037109	557.310425
1072.867188	524.300476
1071.695313	513.236023
1070.523438	548.226746
1069.349609	543.739380
1068.177734	578.711182
1067.005859	569.836365
1065.832031	545.625977
1064.660156	479.798218
1063.486328	523.517578
1062.312500	457.718475
1061.138672	431.357330
1059.964844	450.979706
1058.791016	413.685547
1057.617188	409.231384
1056.441406	398.214844
1055.267578	393.765198
1054.091797	374.006927
1052.916016	358.629578
1051.742188	371.680603
1050.566406	378.168854
1049.390625	406.510071
1048.212891	356.175964
1047.037109	360.478699
1045.861328	375.701355
1044.683594	338.504669
1043.507813	351.542206
1042.330078	390.771820
1041.152344	340.497070
1039.974609	353.526855
1038.796875	298.914185
1037.619141	346.849945
1036.439453	372.957367
1035.261719	327.094208
1034.082031	327.032867
1032.904297	359.668671
1031.724609	346.524750
1030.544922	333.385773
1029.365234	331.144623
1028.185547	320.191589
1027.005859	328.842529
1025.826172	320.071350
1024.644531	311.303467
1023.464844	359.128845
1022.283203	343.828461
1021.101563	308.952332
1019.919922	328.472076
1018.738281	356.684082
1017.556641	376.187500
1016.375000	397.857635
1015.191406	404.303864
1014.009766	339.029785
1012.826172	401.978943
1011.644531	438.834991
1010.460938	499.569611
1009.277344	603.713989
1008.093750	657.880981
1006.910156	774.981201
1005.726563	844.288391
1004.541016	943.949341
1003.357422	924.245300
1002.171875	926.240417
1000.986328	821.964905
999.802734	808.799866
998.617188	750.112671
997.431641	663.269470
996.244141	602.464600
995.058594	647.852356
993.873047	623.900696
992.685547	576.132996
991.498047	519.721191
990.312500	519.623169
989.125000	532.513306
987.937500	495.620087
986.750000	519.329163
985.562500	538.702332
984.373047	506.154846
983.185547	547.149597
981.996094	560.019775
980.808594	588.017822
979.619141	549.001160
978.429688	527.287354
977.240234	613.612000
976.050781	663.180603
974.861328	732.168579
973.669922	982.518433
972.480469	1193.912109
971.289063	1428.969971
970.097656	1864.647583
968.908203	2371.365967
967.716797	2653.529297
966.525391	2612.045654
965.332031	2197.498779
964.140625	1666.678345
962.949219	1200.729858
961.755859	954.798340
960.564453	786.536011
959.371094	601.101379
958.177734	516.978577
956.984375	516.880676
955.791016	480.177368
954.597656	454.252197
953.402344	393.897644
952.208984	389.518951
951.013672	382.990265
949.820313	335.590790
948.625000	382.845123
947.429688	354.817261
946.234375	326.799988
945.039063	309.541290
943.843750	333.123627
942.646484	328.762878
941.451172	317.958679
940.253906	367.301483
939.056641	300.657623
937.861328	324.219177
936.664063	332.744598
935.466797	306.925476
934.267578	240.343536
933.070313	323.973083
931.873047	276.719147
930.673828	276.666595
929.476563	321.644226
928.277344	302.288147
927.078125	336.526398
925.878906	336.462463
924.679688	293.545197
923.480469	248.501984
922.279297	284.866211
921.080078	314.792267
919.878906	291.181000
918.677734	271.859955
917.478516	269.668030
916.277344	278.175995
915.076172	248.171356
913.875000	295.182159
912.671875	265.185669
911.470703	269.411560
910.267578	299.289215
909.066406	297.094849
907.863281	279.942566
906.660156	243.567749
905.457031	314.014374
904.253906	311.818817
903.050781	296.812042
901.845703	260.461639
900.642578	262.546539
899.437500	273.167084
898.234375	285.917297
897.029297	292.262695
895.824219	234.618744
894.619141	264.428864
893.414063	292.095520
892.207031	285.644775
891.001953	279.196472
889.796875	289.797546
888.589844	253.524460
887.382813	293.947052
886.175781	300.279877
884.968750	244.862366
883.761719	236.300278
882.554688	266.053101
881.347656	297.922577
880.138672	280.844788
878.931641	261.646271
877.722656	267.976685
876.513672	267.925476
875.304688	261.496338
874.095703	265.697510
872.886719	284.773285
871.677734	295.342682
870.466797	250.674622
869.257813	250.626678
868.046875	293.049713
866.835938	307.855682
865.625000	278.078461
864.414063	267.413605
863.203125	260.996674
861.992188	271.554291
860.781250	301.197876
859.568359	250.243286
858.357422	292.601379
857.144531	292.545349
855.931641	235.263153
854.718750	277.599731
853.505859	300.851990
852.292969	258.428955
851.080078	279.558075
849.865234	302.796539
848.652344	277.333862
847.437500	289.980591
846.222656	311.087402
845.007813	268.711060
843.792969	251.736084
842.578125	344.748840
841.363281	321.421906
840.148438	270.619171
838.931641	245.201553
837.714844	283.195740
836.500000	325.401276
835.283203	340.126953
834.066406	264.023041
832.849609	266.084106
831.632813	255.476151
830.414063	280.758698
829.197266	272.262543
827.978516	265.879761
826.759766	278.487183
825.542969	305.855164
824.324219	225.656647
823.105469	297.303467
821.886719	284.597565
820.666016	250.819244
819.447266	263.414948
818.226563	278.112671
817.007813	286.485229
815.787109	254.838562
814.566406	263.212341
813.345703	258.951111
812.125000	286.264832
810.904297	271.478363
809.681641	281.946503
808.460938	326.069366
807.238281	256.598724
806.015625	248.137863
804.792969	271.217133
803.570313	271.164886
802.347656	247.994507
801.125000	289.971619
799.902344	304.621613
798.677734	266.755096
797.455078	281.403900
796.230469	291.847778
795.005859	279.196198
793.781250	329.513916
792.556641	306.367859
791.332031	293.720734
790.107422	251.712082
788.880859	228.594360
787.656250	260.002136
786.429688	257.855591
785.203125	278.765656
783.976563	295.476471
782.750000	282.848389
781.523438	280.699005
780.296875	276.456085
779.070313	297.342285
777.841797	316.126862
776.613281	246.991821
775.386719	253.222351
774.158203	267.819824
772.929688	280.319702
771.701172	263.533264
770.470703	265.573456
769.242188	292.701538
768.011719	288.464294
766.783203	273.779114
765.552734	248.652008
764.322266	238.158371
763.091797	263.176758
761.861328	273.567352
760.630859	313.184448
759.400391	290.161438
758.167969	250.450592
756.937500	262.922211
755.705078	256.612488
754.472656	254.476929
753.240234	283.624268
752.007813	254.378372
750.775391	275.175751
749.541016	285.543762
748.308594	285.488434
747.074219	304.184204
745.841797	277.045593
744.607422	281.157196
743.373047	293.596161
742.138672	291.457397
740.904297	231.039276
739.667969	264.290985
738.433594	280.884735
737.199219	245.466446
735.962891	247.498657
734.726563	241.212387
733.490234	259.876709
732.253906	247.354599
731.017578	276.401489
729.781250	236.869568
728.542969	267.984589
727.306641	236.777603
726.068359	259.574158
724.830078	247.066605
723.591797	259.473328
722.353516	263.573700
721.115234	273.897369
719.876953	273.844147
718.638672	257.197540
717.398438	265.442627
716.158203	313.078491
714.919922	252.901657
713.679688	288.086029
712.439453	304.607269
711.199219	263.112915
709.957031	273.418488
708.716797	294.074799
707.474609	277.453217
706.234375	296.030518
704.992188	285.624176
703.750000	264.875214
702.507813	304.133423
701.265625	316.485382
700.023438	287.469971
698.779297	310.158966
697.537109	328.704468
696.292969	289.368927
695.050781	328.576416
693.806641	320.247925
692.562500	313.988373
691.318359	276.751587
690.072266	344.839600
688.828125	334.449860
687.583984	313.743622
686.337891	334.319458
685.091797	290.924988
683.845703	340.377747
682.599609	344.436310
681.353516	309.313568
680.107422	325.746735
678.861328	309.192871
677.613281	329.741364
676.367188	327.616516
675.119141	304.891693
673.871094	323.369232
672.623047	308.891174
671.375000	290.300995
670.126953	321.121338
668.876953	292.245667
667.628906	300.419220
666.378906	351.792114
665.128906	290.017517
663.880859	294.073761
662.630859	273.455688
661.380859	293.958771
660.128906	322.674866
658.878906	318.502045
657.626953	322.548645
656.376953	299.891022
655.125000	336.798004
653.873047	295.667206
652.621094	314.084930
651.369141	277.079529
650.117188	326.274231
648.865234	299.539063
647.611328	322.044006
646.357422	362.997650
645.105469	354.724823
643.851563	342.355164
642.597656	340.238464
641.343750	344.270264
640.089844	348.300446
638.833984	348.232208
637.580078	344.067902
636.324219	348.095703
635.068359	366.452454
633.812500	376.614685
632.556641	429.747711
631.300781	360.098877
630.044922	388.666840
628.789063	441.766144
627.531250	382.379913
626.275391	398.660187
625.017578	423.110046
623.759766	410.765350
622.501953	424.987183
621.244141	441.246185
619.986328	365.590546
618.726563	357.350739
617.468750	422.611877
616.208984	440.899658
614.949219	416.323425
613.689453	401.958832
612.429688	397.799866
611.169922	418.117645
609.910156	454.741028
608.648438	434.263672
607.388672	448.447052
606.126953	425.940918
604.867188	489.022583
603.605469	444.108154
602.343750	458.278320
601.080078	482.624878
599.818359	488.637878
598.556641	458.007874
597.292969	445.706573
596.031250	455.792786
594.767578	461.806213
593.503906	437.307434
592.240234	433.154144
590.976563	437.135223
589.710938	422.819611
588.447266	449.157318
587.181641	388.109253
585.917969	422.569733
584.652344	410.299347
583.386719	406.156921
582.121094	414.198364
580.855469	426.296631
579.587891	426.212555
578.322266	442.361969
577.054688	448.361084
575.787109	425.960419
574.521484	423.848389
573.253906	433.902679
571.986328	454.088898
570.716797	437.785004
569.449219	423.513916
568.179688	474.079865
566.912109	445.628113
565.642578	431.363831
564.373047	437.352997
563.103516	451.437286
561.833984	489.803772
560.564453	457.329681
559.292969	459.262482
558.023438	495.581818
556.751953	483.349548
555.482422	499.429871
554.210938	458.899475
552.939453	529.550171
551.666016	499.133667
550.394531	553.585327
549.123047	531.255981
547.849609	519.033386
546.578125	545.180115
545.304688	571.316406
544.031250	613.589478
542.757813	643.737793
541.484375	627.469666
540.208984	625.328247
538.935547	673.607361
537.660156	729.932800
536.386719	768.092041
535.111328	773.986633
533.835938	844.364990
532.560547	886.508301
531.283203	860.145508
530.007813	920.394775
528.732422	944.375488
527.455078	978.412537
526.177734	956.077759
524.900391	1038.396362
523.623047	1030.142456
522.345703	1084.251221
521.068359	1090.069702
519.791016	1077.788696
518.511719	1007.210754
517.234375	916.560730
515.955078	904.321228
514.675781	865.966797
513.396484	857.759644
512.117188	781.269897
510.835938	742.962585
509.556641	748.837830
508.275391	666.393433
506.996094	600.036316
505.714844	571.827332
504.433594	553.659546
503.152344	569.594421
501.871094	531.382080
500.587891	509.223450
499.306641	517.139832
498.023438	434.872192
496.740234	458.829163
495.458984	380.612213
494.175781	462.652252
492.890625	444.538361
491.607422	396.401245
490.324219	386.314209
489.039063	370.227478
487.755859	386.160400
486.470703	394.085236
485.185547	352.006042
483.900391	397.927551
482.615234	383.853607
481.328125	391.772491
480.042969	389.695984
478.755859	409.598755
477.470703	381.550079
476.183594	397.451996
474.896484	381.397980
473.609375	387.311279
472.322266	365.277466
471.033203	443.035095
469.746094	448.932465
468.457031	482.755493
467.169922	494.625916
465.880859	558.337158
464.591797	596.105347
463.300781	593.993042
462.011719	625.760315
460.722656	631.612793
459.431641	627.502502
458.142578	645.302246
456.851563	609.330383
455.560547	601.245117
454.269531	533.448669
452.978516	509.461060
451.685547	533.235474
450.394531	479.418121
449.101563	459.433380
447.808594	447.410553
446.517578	461.237762
445.224609	439.280853
443.929688	403.421600
442.636719	383.471863
441.343750	409.219696
440.048828	454.818207
438.755859	409.055908
437.460938	416.915253
436.166016	410.877045
434.871094	383.011566
433.576172	420.633087
432.279297	380.874420
430.984375	406.581329
429.687500	448.141327
428.392578	394.523254
427.095703	412.283356
425.798828	426.072876
424.501953	402.211426
423.203125	372.416687
421.906250	352.536591
420.609375	362.366608
419.310547	409.807892
418.011719	385.973450
416.712891	395.790771
415.414063	419.454041
414.115234	409.479065
412.816406	391.597015
411.515625	413.269409
410.216797	399.347656
408.916016	397.290894
407.615234	337.925873
406.314453	389.228210
405.013672	327.913208
403.712891	410.796661
402.410156	385.044495
401.109375	373.121948
399.806641	378.968323
398.503906	398.626129
397.201172	406.437958
395.898438	335.342529
394.595703	380.635834
393.292969	370.700195
391.988281	368.654205
390.685547	398.145294
389.380859	380.329590
388.076172	374.342377
386.771484	344.719604
385.466797	352.527924
384.162109	348.518890
382.855469	358.291901
381.550781	362.156189
380.244141	324.694214
378.937500	316.759003
377.630859	352.102112
376.324219	342.197876
375.017578	316.567535
373.710938	322.401306
372.402344	288.923401
371.095703	312.445953
369.787109	343.817719
368.478516	343.748352
367.169922	331.895721
365.861328	376.988892
364.552734	335.687988
363.242188	359.172516
361.933594	345.363953
360.623047	309.980042
359.312500	358.955048
358.001953	351.038116
356.691406	376.456451
355.380859	366.578857
354.068359	393.943634
352.757813	389.945007
351.445313	417.293976
350.132813	395.663574
348.822266	407.333618
347.507813	358.302795
346.195313	395.423645
344.882813	330.757813
343.568359	350.258423
342.255859	332.580383
340.941406	332.513092
339.626953	295.290100
338.312500	340.199188
336.998047	324.492126
335.683594	287.293304
334.367188	300.912994
333.052734	326.248657
331.736328	273.446472
330.419922	324.163696
329.103516	287.002472
327.787109	263.520294
326.470703	304.450623
325.154297	319.998596
323.835938	304.327209
322.519531	288.662140
321.201172	271.053375
319.882813	282.696167
318.564453	235.857239
317.246094	249.451248
315.925781	278.627258
314.607422	284.414856
313.287109	260.985321
311.966797	266.774109
310.648438	262.826202
309.328125	262.772858
308.005859	299.694824
306.685547	293.796906
305.365234	262.612762
304.042969	276.173584
302.720703	311.118256
301.400391	293.558167
300.078125	305.160706
298.755859	229.309814
297.431641	299.207886
296.109375	246.699188
294.785156	264.128052
293.462891	279.608124
292.138672	283.433868
290.814453	265.907806
289.490234	256.151001
288.166016	242.517853
286.839844	236.649231
285.515625	244.358459
284.189453	261.759308
282.863281	244.258926
281.537109	290.725189
280.210938	263.537140
278.884766	271.232941
277.558594	304.106384
276.230469	294.361450
274.904297	249.768982
273.576172	251.653854
272.248047	220.636063
270.919922	243.811172
269.591797	265.042175
268.263672	261.119659
266.933594	253.331085
265.605469	245.545654
264.275391	291.888397
262.945313	291.828796
261.615234	295.633698
260.285156	283.982208
258.955078	345.730835
257.623047	299.314697
256.292969	297.322876
254.960938	310.774017
253.628906	335.798920
252.296875	343.448212
250.964844	364.597992
249.632813	354.879974
248.300781	372.162079
246.966797	354.734802
245.632813	362.372284
244.300781	358.443878
242.966797	348.736908
241.632813	331.328583
240.296875	331.260742
238.962891	367.778198
237.628906	311.873657
236.292969	315.659271
234.957031	309.821533
233.621094	288.594452
232.285156	294.306030
230.949219	307.707947
229.613281	307.644867
228.275391	317.193726
226.937500	344.036560
225.601563	324.750031
224.263672	328.525848
222.925781	341.904114
221.587891	361.038116
220.248047	395.524414
218.910156	410.800262
217.570313	374.250488
216.230469	397.199707
214.892578	354.912354
213.552734	404.708801
212.210938	375.860809
210.871094	370.031799
209.531250	345.036469
208.189453	341.132599
206.847656	310.405182
205.505859	342.908051
204.164063	312.192871
202.822266	300.639252
201.480469	306.320953
200.136719	304.343811
198.794922	344.469269
197.451172	286.998657
196.107422	292.678375
194.763672	288.793060
193.419922	305.942902
192.076172	351.761871
190.730469	305.816895
189.386719	309.575836
188.041016	317.154327
186.695313	334.280548
185.349609	336.121429
184.003906	326.505188
182.658203	316.892914
181.310547	303.467377
179.964844	303.404785
178.617188	293.803162
177.269531	288.020294
175.921875	282.239777
174.574219	265.021851
173.226563	316.435577
171.876953	253.477386
170.529297	280.101379
169.179688	264.803070
167.830078	291.413666
166.480469	274.215027
165.130859	245.600204
163.781250	232.225067
162.429688	277.851257
161.080078	273.988434
159.728516	277.736389
158.376953	292.894226
157.025391	313.750336
155.673828	309.883209
154.322266	317.421997
152.970703	324.957672
151.617188	321.090546
150.263672	321.024078
148.910156	301.966034
147.556641	343.676300
146.203125	385.369293
144.849609	390.983398
143.496094	398.492737
142.140625	352.877594
140.785156	349.010864
139.429688	314.803223
138.074219	299.569855
136.718750	303.298981
135.363281	327.874023
134.007813	312.647339
132.650391	331.526886
131.292969	375.021149
129.935547	391.986206
128.578125	401.371124
127.220703	425.895081
125.863281	435.269012
124.503906	473.020233
123.146484	495.622223
121.787109	482.280212
120.427734	444.361938
119.068359	516.108948
117.708984	567.034790
116.349609	672.741394
114.988281	653.708191
113.628906	644.127563
112.267578	642.105042
110.906250	689.175232
109.544922	694.695129
108.183594	634.154846
106.820313	541.561157
105.458984	439.573120
104.095703	437.595398
102.734375	416.760529
101.371094	354.455475
100.007813	337.416534
98.642578	343.000061
97.279297	341.044373
95.916016	352.276245
94.550781	325.834686
93.185547	399.205475
91.820313	359.586548
90.455078	363.276031
89.089844	299.216797
87.724609	355.598572
86.357422	406.313538
84.990234	455.126617
83.625000	498.278412
82.257813	460.576294
80.890625	452.962036
79.521484	420.922424
78.154297	373.866333
76.785156	435.773193
75.417969	390.611542
74.048828	367.999298
72.679688	424.237000
71.310547	444.792664
69.941406	435.317780
68.570313	463.366364
67.201172	403.250702
65.830078	341.284973
64.458984	324.340332
63.087891	271.789032
61.716797	320.456512
60.345703	279.169708
58.972656	303.463196
